Timestamp (us),Roll (deg),Pitch (deg),Yaw (deg)
192256014,-89.867104,1.520200,-96.144798
192276004,-89.868896,1.519400,-96.144501
192297260,-89.869598,1.518400,-96.145699
192317012,-89.871002,1.520100,-96.145599
192337004,-89.874001,1.517200,-96.144203
192357010,-89.875298,1.513900,-96.143700
192377007,-89.871201,1.515500,-96.143402
192397182,-89.869499,1.515500,-96.145500
192417011,-89.871399,1.516900,-96.145897
192437008,-89.871803,1.516800,-96.146004
192457009,-89.874397,1.515900,-96.147102
192477009,-89.871696,1.515900,-96.147903
192497179,-89.871696,1.516900,-96.147499
192517007,-89.875397,1.517900,-96.148003
192537007,-89.875900,1.517400,-96.147400
192557008,-89.875000,1.517000,-96.147003
192577005,-89.870102,1.518400,-96.147499
192597187,-89.871803,1.518900,-96.148201
192617007,-89.870598,1.520200,-96.148102
192637004,-89.869102,1.520400,-96.148804
192657007,-89.866600,1.523200,-96.149803
192677005,-89.863998,1.522000,-96.148697
192697175,-89.861298,1.521400,-96.148300
192717010,-89.860397,1.520500,-96.149002
192737005,-89.859901,1.519100,-96.148499
192757009,-89.855904,1.521900,-96.148201
192777005,-89.848000,1.526800,-96.149101
192798539,-89.851997,1.525400,-96.148804
192817008,-89.856796,1.524700,-96.149300
192837012,-89.852600,1.525900,-96.148804
192857012,-89.844803,1.530000,-96.150200
192877010,-89.841003,1.531700,-96.151199
192897182,-89.845398,1.531600,-96.151901
192917007,-89.850502,1.530100,-96.151901
192937007,-89.847099,1.531100,-96.153503
192957010,-89.840103,1.532700,-96.153801
192977011,-89.838203,1.532800,-96.154404
192997179,-89.842903,1.531900,-96.155800
193017004,-89.845497,1.530900,-96.157303
193037008,-89.850800,1.527900,-96.158600
193057007,-89.852997,1.523800,-96.157501
193077009,-89.853401,1.524700,-96.157097
193097178,-89.854401,1.523200,-96.157700
193117008,-89.856400,1.522000,-96.158096
193137004,-89.852997,1.524600,-96.158699
193157012,-89.850998,1.526300,-96.158401
193177007,-89.851997,1.524200,-96.157600
193197175,-89.856201,1.521900,-96.156898
193217008,-89.859100,1.522600,-96.156197
193237005,-89.852699,1.526900,-96.156998
193257012,-89.846397,1.530500,-96.156403
193277008,-89.847702,1.532000,-96.156502
193297178,-89.850502,1.530300,-96.155701
193318111,-89.851898,1.528200,-96.155098
193337004,-89.853500,1.528300,-96.155701
193357012,-89.856598,1.529800,-96.155602
193377012,-89.858101,1.529500,-96.155800
193397176,-89.858902,1.528900,-96.155602
193417008,-89.857002,1.529000,-96.155998
193437012,-89.853104,1.529700,-96.157799
193457007,-89.851898,1.530700,-96.158600
193477003,-89.851601,1.530700,-96.160202
193497179,-89.851997,1.530200,-96.161797
193517004,-89.853203,1.531800,-96.163498
193537012,-89.850304,1.533000,-96.164803
193557008,-89.853203,1.533000,-96.164497
193577009,-89.857498,1.532700,-96.166199
193597176,-89.857597,1.533000,-96.166901
193617012,-89.854599,1.535500,-96.166000
193637004,-89.854500,1.535400,-96.167000
193657012,-89.853996,1.534900,-96.168098
193677012,-89.855400,1.533900,-96.166702
193697176,-89.854103,1.533600,-96.165901
193717012,-89.854401,1.534800,-96.160301
193737004,-89.852699,1.535900,-96.153297
193757007,-89.852600,1.537300,-96.153900
193777005,-89.854500,1.536500,-96.153198
193798532,-89.853500,1.535100,-96.153297
193817467,-89.854301,1.529000,-96.153000
193837008,-89.856697,1.527200,-96.152000
193857009,-89.861198,1.527600,-96.150002
193877007,-89.860901,1.528000,-96.147598
193897183,-89.861900,1.528900,-96.145302
193917007,-89.860100,1.526700,-96.142403
193937007,-89.856697,1.528000,-96.137901
193957010,-89.853401,1.531100,-96.133598
193977012,-89.855400,1.530100,-96.126503
193997177,-89.851501,1.532500,-96.123901
194017008,-89.847198,1.534500,-96.125900
194037007,-89.842796,1.534600,-96.128700
194057009,-89.844498,1.537600,-96.128998
194077009,-89.844200,1.536500,-96.129097
194097178,-89.842003,1.538800,-96.127403
194117007,-89.832298,1.540400,-96.125000
194137012,-89.820000,1.541300,-96.102798
194157004,-89.811600,1.543200,-96.085503
194177007,-89.810600,1.541800,-96.077904
194197176,-89.815903,1.538400,-96.078003
194217007,-89.822998,1.537100,-96.081802
194237008,-89.826500,1.540200,-96.084198
194257008,-89.827797,1.540300,-96.086899
194277012,-89.827599,1.542200,-96.088600
194298259,-89.831703,1.544000,-96.090599
194318005,-89.839699,1.541800,-96.092102
194338012,-89.847198,1.537600,-96.094101
194358004,-89.840202,1.538300,-96.098701
194378004,-89.830002,1.541800,-96.102303
194398181,-89.825401,1.546200,-96.103798
194418012,-89.832397,1.544100,-96.106697
194438012,-89.832703,1.541500,-96.107697
194458008,-89.827003,1.543900,-96.109901
194478004,-89.820602,1.549100,-96.112198
194498177,-89.813797,1.554800,-96.115501
194518007,-89.812500,1.554700,-96.116997
194538008,-89.814796,1.551200,-96.117302
194558007,-89.814301,1.549500,-96.117897
194578011,-89.814102,1.550200,-96.119102
194598182,-89.820099,1.544800,-96.118599
194618008,-89.823097,1.542900,-96.121803
194638012,-89.823402,1.542800,-96.125000
194658006,-89.829300,1.543100,-96.126297
194678007,-89.835297,1.538600,-96.127502
194698178,-89.833504,1.537600,-96.129501
194718007,-89.824997,1.539600,-96.132599
194738009,-89.820801,1.541500,-96.133301
194758010,-89.824203,1.541000,-96.135498
194778010,-89.826103,1.540100,-96.138298
194799544,-89.821701,1.541500,-96.140503
194818009,-89.816299,1.544200,-96.141098
194838007,-89.814201,1.545000,-96.141701
194858004,-89.815697,1.544300,-96.143700
194878004,-89.822098,1.542900,-96.145401
194898176,-89.820999,1.545600,-96.147003
194918012,-89.816597,1.548000,-96.148399
194938012,-89.811699,1.548200,-96.149597
194958005,-89.813103,1.548200,-96.151398
194978008,-89.814201,1.547700,-96.151703
194998182,-89.810699,1.552300,-96.154198
195018014,-89.805901,1.552500,-96.156303
195038004,-89.810898,1.546700,-96.159401
195058007,-89.821198,1.542500,-96.162201
195078009,-89.822899,1.543400,-96.163101
195098182,-89.820801,1.545000,-96.163101
195118012,-89.820801,1.546300,-96.164703
195138008,-89.823097,1.544100,-96.164101
195158012,-89.824898,1.545400,-96.164902
195178007,-89.819801,1.549000,-96.166298
195198179,-89.813004,1.553100,-96.167503
195218012,-89.809402,1.557400,-96.168800
195238004,-89.810699,1.557600,-96.169899
195258007,-89.810699,1.557900,-96.171097
195278008,-89.807098,1.559500,-96.172302
195298174,-89.805801,1.561400,-96.174202
195318008,-89.806602,1.559700,-96.175903
195338012,-89.811203,1.559000,-96.178200
195358012,-89.818001,1.557500,-96.180199
195378012,-89.820900,1.558600,-96.182198
195398173,-89.815300,1.562100,-96.183800
195418004,-89.812798,1.568300,-96.185501
195438009,-89.810699,1.567900,-96.188301
195458011,-89.809799,1.567700,-96.190201
195478007,-89.812103,1.567100,-96.191200
195498188,-89.816498,1.566500,-96.195000
195518004,-89.816498,1.565900,-96.196899
195538008,-89.811897,1.567100,-96.196701
195558007,-89.807899,1.572400,-96.197800
195578009,-89.809097,1.573200,-96.200203
195598178,-89.813202,1.573200,-96.201401
195618010,-89.816597,1.571200,-96.201103
195638012,-89.813301,1.571600,-96.201103
195658007,-89.808098,1.573400,-96.202400
195678008,-89.807198,1.574300,-96.204903
195698182,-89.811302,1.574900,-96.207199
195718004,-89.815102,1.574700,-96.209999
195738012,-89.815804,1.572600,-96.211502
195758009,-89.818398,1.570400,-96.212196
195778003,-89.819000,1.570800,-96.213303
195799538,-89.820503,1.571900,-96.215797
195818012,-89.818604,1.572000,-96.216103
195838008,-89.814003,1.573700,-96.216698
195858010,-89.810600,1.576900,-96.217201
195878007,-89.811302,1.575000,-96.218002
195898183,-89.814796,1.575900,-96.219398
195918012,-89.816704,1.577000,-96.219498
195938004,-89.815903,1.578700,-96.218803
195958008,-89.816399,1.578000,-96.219200
195978011,-89.814400,1.579000,-96.220299
195998178,-89.816902,1.580600,-96.221802
196018012,-89.823799,1.577600,-96.223503
196038004,-89.838600,1.569300,-96.224503
196058007,-89.839401,1.564900,-96.224503
196078013,-89.828400,1.570300,-96.225899
196098186,-89.816803,1.575600,-96.227501
196118012,-89.814598,1.578000,-96.229401
196138003,-89.814301,1.578300,-96.230003
196158004,-89.812798,1.577300,-96.231598
196178003,-89.814697,1.579600,-96.233200
196198178,-89.814903,1.581000,-96.234703
196218006,-89.811203,1.581800,-96.235001
196238003,-89.809502,1.582400,-96.235298
196258008,-89.805702,1.581700,-96.235603
196278004,-89.803299,1.581400,-96.238197
196299258,-89.806602,1.580900,-96.238800
196319013,-89.810501,1.577700,-96.239799
196339009,-89.809998,1.576500,-96.238899
196359012,-89.803902,1.578700,-96.238403
196379007,-89.798698,1.580100,-96.239197
196399179,-89.799896,1.580500,-96.240501
196419004,-89.805000,1.579500,-96.242599
196439007,-89.809799,1.576100,-96.244003
196459013,-89.812202,1.574900,-96.243202
196479008,-89.813202,1.574700,-96.245399
196499177,-89.811897,1.573700,-96.246597
196519007,-89.812599,1.571600,-96.245201
196539012,-89.809402,1.573100,-96.245499
196559010,-89.805099,1.573800,-96.244797
196579006,-89.807701,1.574100,-96.245102
196599179,-89.813004,1.574700,-96.246696
196619009,-89.812698,1.569300,-96.247299
196639007,-89.806396,1.571900,-96.246498
196659011,-89.799400,1.574700,-96.245399
196679012,-89.797401,1.576300,-96.245201
196699383,-89.799500,1.576500,-96.247902
196719004,-89.802803,1.575200,-96.248596
196739008,-89.802399,1.573000,-96.248299
196759012,-89.801003,1.573900,-96.247002
196779007,-89.796700,1.575000,-96.247704
196800536,-89.797501,1.574800,-96.247398
196819010,-89.797401,1.573400,-96.247002
196839009,-89.796997,1.576300,-96.246597
196859011,-89.796700,1.576300,-96.247200
196879012,-89.795502,1.575000,-96.247299
196899179,-89.796303,1.576200,-96.247200
196919007,-89.795998,1.576400,-96.247299
196939004,-89.794899,1.574500,-96.248299
196959011,-89.792000,1.574200,-96.248001
196979007,-89.792503,1.575400,-96.248001
196999182,-89.797600,1.575300,-96.248299
197019004,-89.802200,1.571900,-96.247902
197039007,-89.797897,1.570700,-96.245796
197059008,-89.791100,1.571400,-96.244202
197079008,-89.790199,1.573000,-96.244202
197099173,-89.796501,1.575100,-96.245300
197119012,-89.803101,1.572900,-96.245300
197139010,-89.800400,1.573400,-96.245796
197159007,-89.795700,1.574200,-96.244698
197179007,-89.791397,1.575200,-96.245499
197199179,-89.791397,1.578000,-96.247002
197219004,-89.794098,1.574800,-96.247803
197239008,-89.793297,1.573100,-96.247299
197259008,-89.794098,1.571700,-96.245796
197279007,-89.796799,1.570000,-96.245499
197299178,-89.796898,1.571200,-96.246300
197319008,-89.793602,1.573300,-96.245399
197339010,-89.792099,1.576700,-96.246201
197359007,-89.790604,1.575400,-96.245102
197379007,-89.792702,1.573500,-96.245102
197399172,-89.793198,1.571600,-96.244698
197419007,-89.791000,1.572000,-96.245003
197439003,-89.788803,1.573000,-96.245697
197459010,-89.790604,1.575400,-96.247200
197479007,-89.797600,1.574600,-96.248802
197499175,-89.802803,1.574200,-96.249802
197519012,-89.799698,1.572900,-96.250999
197539012,-89.791199,1.571900,-96.251099
197559012,-89.787498,1.573400,-96.250900
197579013,-89.788498,1.571100,-96.250298
197599175,-89.790901,1.568600,-96.250702
197619004,-89.793999,1.566600,-96.248703
197639009,-89.794701,1.561000,-96.248497
197659004,-89.792198,1.559600,-96.247498
197679008,-89.787102,1.562800,-96.247200
197699177,-89.789200,1.563000,-96.248596
197719004,-89.787598,1.565200,-96.249397
197739009,-89.785400,1.567800,-96.248299
197759005,-89.783699,1.569400,-96.247398
197779006,-89.778702,1.568900,-96.245598
197800546,-89.776604,1.567100,-96.244499
197819009,-89.774597,1.565800,-96.245201
197839004,-89.777802,1.566000,-96.246696
197859011,-89.782402,1.564700,-96.248497
197879007,-89.779701,1.565100,-96.248703
197899179,-89.771896,1.567800,-96.248199
197919006,-89.768799,1.568100,-96.248596
197939004,-89.770203,1.568300,-96.247498
197959009,-89.777199,1.567700,-96.248100
197979004,-89.779999,1.566300,-96.246696
197999181,-89.781097,1.566300,-96.246002
198019007,-89.779999,1.566800,-96.245399
198039005,-89.780403,1.566400,-96.245697
198059009,-89.781403,1.567400,-96.245598
198079013,-89.786400,1.566000,-96.244698
198099179,-89.791100,1.561100,-96.242599
198119008,-89.785797,1.563900,-96.243301
198139007,-89.782402,1.564700,-96.243896
198159010,-89.781998,1.566500,-96.244499
198179007,-89.786697,1.567000,-96.246399
198199178,-89.791397,1.564000,-96.247101
198219007,-89.792603,1.563700,-96.246101
198239012,-89.791000,1.562600,-96.246002
198259012,-89.791000,1.564800,-96.246597
198279010,-89.790100,1.564700,-96.245697
198300259,-89.790901,1.567500,-96.245796
198320011,-89.794601,1.564700,-96.246300
198340004,-89.794701,1.564600,-96.247299
198360012,-89.793404,1.565300,-96.247498
198380006,-89.793198,1.567300,-96.246902
198400187,-89.793900,1.565500,-96.246498
198420012,-89.792603,1.565900,-96.246597
198440007,-89.790703,1.567600,-96.245399
198460013,-89.789299,1.569300,-96.245697
198480007,-89.788399,1.568400,-96.245598
198500178,-89.789597,1.567800,-96.245598
198520010,-89.792702,1.565600,-96.244698
198540008,-89.793900,1.564700,-96.244797
198560004,-89.791496,1.567900,-96.244904
198580009,-89.786797,1.569100,-96.246597
198600176,-89.786903,1.568500,-96.245399
198620008,-89.786903,1.567600,-96.246300
198640010,-89.784302,1.568200,-96.246696
198660008,-89.782997,1.570200,-96.247398
198680007,-89.781097,1.570300,-96.248596
198700181,-89.781502,1.571400,-96.249901
198720004,-89.781898,1.572600,-96.251099
198740010,-89.783699,1.571500,-96.250801
198760012,-89.785599,1.568400,-96.250397
198780012,-89.789001,1.569100,-96.251701
198801535,-89.792397,1.568300,-96.252403
198820008,-89.793404,1.569100,-96.253403
198840011,-89.793404,1.567500,-96.252701
198860008,-89.792999,1.567900,-96.252197
198880007,-89.792999,1.569100,-96.252899
198900183,-89.793297,1.571800,-96.253998
198920004,-89.792198,1.571600,-96.254204
198940007,-89.791496,1.571300,-96.254204
198960009,-89.790100,1.569900,-96.254097
198980008,-89.787598,1.568900,-96.254799
199000182,-89.788803,1.568400,-96.254501
199020007,-89.789597,1.567800,-96.254997
199040004,-89.787300,1.566900,-96.255898
199060007,-89.786301,1.567800,-96.255203
199080005,-89.785500,1.568800,-96.254303
199100175,-89.785004,1.569000,-96.254601
199120009,-89.786499,1.568700,-96.254601
199140008,-89.785698,1.569700,-96.254501
199160007,-89.779701,1.573000,-96.253799
199180012,-89.776703,1.574500,-96.252296
199200174,-89.776299,1.574600,-96.251900
199220007,-89.778099,1.573500,-96.252701
199240012,-89.781601,1.571700,-96.253700
199260008,-89.779999,1.571300,-96.252800
199280012,-89.777100,1.573800,-96.252098
199300179,-89.777298,1.572900,-96.253304
199320011,-89.779701,1.572100,-96.254700
199340012,-89.784203,1.572900,-96.256203
199360007,-89.786797,1.573500,-96.258400
199380008,-89.785698,1.574000,-96.258102
199400183,-89.785301,1.572600,-96.257797
199420012,-89.784698,1.572600,-96.257202
199440007,-89.783600,1.573700,-96.256798
199460009,-89.785103,1.573000,-96.256798
199480006,-89.785797,1.572400,-96.255501
199500179,-89.785004,1.572600,-96.255402
199520012,-89.783203,1.574800,-96.256699
199540007,-89.780800,1.575100,-96.257896
199560008,-89.780899,1.574400,-96.259697
199580005,-89.782097,1.573400,-96.261299
199600183,-89.783501,1.573300,-96.258698
199620012,-89.785599,1.573900,-96.260597
199640007,-89.788200,1.572400,-96.260902
199660012,-89.790298,1.573400,-96.260597
199680004,-89.788399,1.572300,-96.258904
199700183,-89.783501,1.572100,-96.259003
199720010,-89.784203,1.574000,-96.259300
199740007,-89.785599,1.573800,-96.260101
199760003,-89.787903,1.572500,-96.260201
199780007,-89.785202,1.570500,-96.258598
199801535,-89.782799,1.569500,-96.257896
199820008,-89.782402,1.570300,-96.258499
199840009,-89.781601,1.571300,-96.258202
199860012,-89.783203,1.570200,-96.259804
199880007,-89.781403,1.569600,-96.260597
199900179,-89.782501,1.569300,-96.261497
199920004,-89.785103,1.569500,-96.262199
199940012,-89.787804,1.568200,-96.263298
199960011,-89.785400,1.569800,-96.263802
199980004,-89.783798,1.571000,-96.263901
200000182,-89.782204,1.571800,-96.263000
200020008,-89.782097,1.569700,-96.263199
200040004,-89.782898,1.568800,-96.263496
200060007,-89.782402,1.570200,-96.262497
200080012,-89.781097,1.571300,-96.260696
200100175,-89.779297,1.569900,-96.260300
200120012,-89.779701,1.569000,-96.257698
200140007,-89.778801,1.568300,-96.257004
200160007,-89.778702,1.568400,-96.255600
200180008,-89.778801,1.570600,-96.254402
200200556,-89.778503,1.571000,-96.249802
200220008,-89.774002,1.571000,-96.241798
200240012,-89.771500,1.573500,-96.238800
200260007,-89.775902,1.571800,-96.238403
200280004,-89.777100,1.571300,-96.237099
200301259,-89.775200,1.571200,-96.237801
200321187,-89.776299,1.572600,-96.239197
200341012,-89.778000,1.570600,-96.239899
200361012,-89.781502,1.567800,-96.240303
200381012,-89.783997,1.567200,-96.240402
200401177,-89.784897,1.567900,-96.239502
200421007,-89.783401,1.568600,-96.238602
200441929,-89.784103,1.571100,-96.236397
200461013,-89.785202,1.569700,-96.236298
200481010,-89.783699,1.566600,-96.234901
200501179,-89.782898,1.564700,-96.233902
200521007,-89.779800,1.565900,-96.232002
200541009,-89.781197,1.567200,-96.232803
200561003,-89.783501,1.568200,-96.231697
200581013,-89.781700,1.566800,-96.230400
200601179,-89.783798,1.568900,-96.230499
200621004,-89.785004,1.568500,-96.230499
200641007,-89.785500,1.568700,-96.230499
200661008,-89.787003,1.568500,-96.230003
200681004,-89.788902,1.568800,-96.229797
200701183,-89.788498,1.567600,-96.229500
200721007,-89.787300,1.569500,-96.228996
200741004,-89.786499,1.568500,-96.230003
200761010,-89.785500,1.570500,-96.230598
200781007,-89.784897,1.572700,-96.232498
200802540,-89.786400,1.571900,-96.232697
200821008,-89.787300,1.570300,-96.232597
200841008,-89.786102,1.568500,-96.232101
200861004,-89.785896,1.570200,-96.231903
200881004,-89.784103,1.571000,-96.232498
200901178,-89.784103,1.570600,-96.232803
200921004,-89.787697,1.571400,-96.232597
200941004,-89.788902,1.569700,-96.232002
200961009,-89.790199,1.568000,-96.232697
200981007,-89.790100,1.568700,-96.232300
201001176,-89.791100,1.568100,-96.232101
201021007,-89.789299,1.568100,-96.232697
201041004,-89.791298,1.569200,-96.231697
201061007,-89.789299,1.567100,-96.232201
201081008,-89.787498,1.570700,-96.232101
201101177,-89.783997,1.572000,-96.231499
201121012,-89.782799,1.572600,-96.231697
201141012,-89.783897,1.574100,-96.231903
201161007,-89.788002,1.571100,-96.232300
201181004,-89.789703,1.570300,-96.233299
201201176,-89.788803,1.570700,-96.234802
201221012,-89.788300,1.573200,-96.235497
201241007,-89.788300,1.574100,-96.236198
201261008,-89.787498,1.572600,-96.236603
201281012,-89.787300,1.574600,-96.236099
201301179,-89.787498,1.576300,-96.237801
201321008,-89.788101,1.580700,-96.239403
201341007,-89.786400,1.580800,-96.240700
201361012,-89.785301,1.577700,-96.239700
201381012,-89.783501,1.579600,-96.239403
201401175,-89.781898,1.580300,-96.239799
201421008,-89.782204,1.583000,-96.240700
201441008,-89.781898,1.583500,-96.240097
201461005,-89.781898,1.582200,-96.239998
201481012,-89.779297,1.582600,-96.239799
201501181,-89.777702,1.585700,-96.240402
201521012,-89.778702,1.585800,-96.242401
201541012,-89.783600,1.584000,-96.243103
201561012,-89.784798,1.582900,-96.244698
201581005,-89.781197,1.581500,-96.244598
201601177,-89.779404,1.582300,-96.244598
201621012,-89.778297,1.583700,-96.245903
201641004,-89.779198,1.582800,-96.246300
201661008,-89.780800,1.582600,-96.246597
201681008,-89.778198,1.583300,-96.246498
201701177,-89.775398,1.586900,-96.247002
201721009,-89.771698,1.584900,-96.245796
201741010,-89.774399,1.583900,-96.246902
201761007,-89.775597,1.584100,-96.246597
201781009,-89.773697,1.582300,-96.246201
201802533,-89.774101,1.581700,-96.246803
201821005,-89.775902,1.584300,-96.247200
201841004,-89.775902,1.585700,-96.247398
201861012,-89.774300,1.586500,-96.247597
201881007,-89.776398,1.585600,-96.249100
201901193,-89.778297,1.584400,-96.250099
201921007,-89.779701,1.583800,-96.250099
201941012,-89.778099,1.581100,-96.250702
201961009,-89.775703,1.581700,-96.250504
201981004,-89.773903,1.583900,-96.250900
202001172,-89.771202,1.583300,-96.251198
202021006,-89.769302,1.580200,-96.251404
202041012,-89.768700,1.577600,-96.250702
202061007,-89.771202,1.576900,-96.250900
202081009,-89.772903,1.577800,-96.251801
202101181,-89.773697,1.577500,-96.252403
202121007,-89.770500,1.578100,-96.253304
202141006,-89.768303,1.579100,-96.252502
202161008,-89.768600,1.577700,-96.253700
202181004,-89.770699,1.577800,-96.254997
202201178,-89.771599,1.576800,-96.254700
202221007,-89.771896,1.576100,-96.254700
202241007,-89.772102,1.574600,-96.253403
